# Test file for "Peak Find" option in "Tools' menu.
# XRD pattern of a silicon standard
#
#plot 2theta,I
#
#2theta	I
40.01	21.062
40.04	20.181
40.07	20.201
40.1	6.721
40.13	22.941
40.16	9.461
40.19	18.481
40.22	8.6
40.25	5.021
40.28	16.74
40.31	22.16
40.34	25.781
40.37	18.6
40.4	23.12
40.43	17.739
40.46	29.459
40.49	21.38
40.52	36.7
40.55	22.319
40.58	16.939
40.61	16.06
40.64	5.279
40.67	11.599
40.7	16.118
40.73	11.639
40.76	22.458
40.79	18.878
40.82	25.197
40.85	17.118
40.88	26.138
40.91	23.458
40.94	2.777
40.97	12.698
41	19.017
41.03	2.837
41.06	18.158
41.09	18.178
41.12	26.297
41.15	18.216
41.18	11.936
41.21	19.157
41.24	8.377
41.27	16.496
41.3	21.016
41.33	5.737
41.36	25.556
41.39	25.576
41.42	0.3956
41.45	18.416
41.48	25.636
41.51	22.955
41.54	13.975
41.57	25.695
41.6	31.115
41.63	18.534
41.66	8.654
41.69	14.975
41.72	25.794
41.75	24.014
41.78	17.735
41.81	19.555
41.84	12.374
41.87	6.094
41.9	17.813
41.93	22.334
41.96	23.254
41.99	16.973
42.02	22.392
42.05	9.814
42.08	8.933
42.11	28.752
42.14	10.772
42.17	22.493
42.2	14.413
42.23	32.432
42.26	27.051
42.29	19.873
42.32	12.692
42.35	19.011
42.38	23.531
42.41	27.152
42.44	18.172
42.47	8.291
42.5	27.212
42.53	28.132
42.56	27.251
42.59	14.671
42.62	26.39
42.65	18.311
42.68	19.231
42.71	10.25
42.74	17.47
42.77	13.891
42.8	13.01
42.83	13.93
42.86	18.451
42.89	22.07
42.92	23.889
42.95	18.509
42.98	11.328
43.01	2.35
43.04	13.169
43.07	20.388
43.1	26.708
43.13	29.429
43.16	6.949
43.19	19.568
43.22	11.488
43.25	15.108
43.28	15.128
43.31	25.047
43.34	22.367
43.37	9.788
43.4	26.907
43.43	13.427
43.46	20.647
43.49	35.968
43.52	17.987
43.55	9.007
43.58	18.028
43.61	14.447
43.64	10.867
43.67	11.786
43.7	19.006
43.73	19.026
43.76	19.946
43.79	9.166
43.82	15.485
43.85	25.406
43.88	25.425
43.91	15.545
43.94	18.266
43.97	5.685
44	18.305
44.03	30.025
44.06	9.344
44.09	23.765
44.12	5.784
44.15	11.204
44.18	23.824
44.21	22.945
44.24	20.264
44.27	15.784
44.3	18.505
44.33	24.824
44.36	12.243
44.39	19.463
44.42	20.382
44.45	15.004
44.48	15.923
44.51	16.843
44.54	18.662
44.57	16.883
44.6	29.502
44.63	24.122
44.66	20.543
44.69	14.262
44.72	11.582
44.75	5.301
44.78	27.821
44.81	29.642
44.84	18.862
44.87	16.181
44.9	8.102
44.93	11.721
44.96	18.941
44.99	20.761
45.02	10.88
45.05	17.201
45.08	11.82
45.11	12.74
45.14	10.961
45.17	17.28
45.2	10.1
45.23	23.632
45.26	14.665
45.29	21.898
45.32	32.729
45.35	5.761
45.38	8.493
45.41	21.125
45.44	7.658
45.47	16.69
45.5	10.422
45.53	19.454
45.56	24.887
45.59	8.719
45.62	33.051
45.65	29.483
45.68	17.816
45.71	24.148
45.74	22.381
45.77	25.112
45.8	28.743
45.83	21.577
45.86	40.51
45.89	28.841
45.92	25.273
45.95	34.305
45.98	30.737
46.01	33.47
46.04	29.903
46.07	30.834
46.1	27.266
46.13	8.399
46.16	21.03
46.19	27.364
46.22	33.695
46.25	24.728
46.28	40.06
46.31	40.993
46.34	42.824
46.37	56.356
46.4	33.888
46.43	33.922
46.46	60.953
46.49	41.186
46.52	41.218
46.55	41.249
46.58	43.082
46.61	45.815
46.64	48.547
46.67	44.978
46.7	47.711
46.73	57.642
46.76	76.576
46.79	67.608
46.82	76.64
46.85	68.572
46.88	85.704
46.91	82.136
46.94	81.269
46.97	120
47	118.233
47.03	198.365
47.06	256.898
47.09	320.829
47.12	322.661
47.15	397.394
47.18	566.627
47.21	759.259
47.24	1394.69
47.27	3321.62
47.3	6020.75
47.33	4742.78
47.36	2197.62
47.39	2093.26
47.42	2965.39
47.45	2919.51
47.48	1300.44
47.51	611.981
47.54	458.114
47.57	314.145
47.6	240.377
47.63	203.51
47.66	168.442
47.69	139.674
47.72	99.206
47.75	94.739
47.78	71.371
47.81	62.404
47.84	60.635
47.87	68.767
47.9	76.899
47.93	50.833
47.96	60.764
47.99	58.997
48.02	45.529
48.05	56.36
48.08	37.493
48.11	44.726
48.14	37.558
48.17	36.689
48.2	47.522
48.23	36.754
48.26	43.087
48.29	32.32
48.32	47.651
48.35	25.183
48.38	34.216
48.41	24.347
48.44	25.28
48.47	23.511
48.5	27.144
48.53	24.476
48.56	29.909
48.59	28.141
48.62	29.972
48.65	33.605
48.68	29.138
48.71	21.07
48.74	24.703
48.77	24.734
48.8	12.166
48.83	36.498
48.86	10.43
48.89	14.963
48.92	23.994
48.95	23.127
48.98	14.159
49.01	14.192
49.04	19.623
49.07	20.556
49.1	21.488
49.13	20.621
49.16	20.653
49.19	9.886
49.22	12.617
49.25	21.65
49.28	26.181
49.31	14.514
49.34	29.846
49.37	11.879
49.4	35.31
49.43	20.944
49.46	19.175
49.49	12.906
49.52	10.239
49.55	17.471
49.58	8.504
49.61	19.337
49.64	25.668
49.67	26.6
49.7	21.233
49.73	15.864
49.76	22.197
49.79	15.029
49.82	26.762
49.85	17.793
49.88	15.127
49.91	22.358
49.94	10.691
49.97	17.922
50	22.456
50.03	15.287
50.06	18.02
50.09	12.651
50.12	9.084
50.15	24.416
50.18	11.847
50.21	19.981
50.24	11.012
50.27	12.845
50.3	25.476
50.33	18.31
50.36	12.041
50.39	18.374
50.42	15.706
50.45	25.638
50.48	17.57
50.51	21.203
50.54	17.635
50.57	17.667
50.6	13.199
50.63	18.632
50.66	15.964
50.69	23.195
50.72	9.728
50.75	14.261
50.78	23.292
50.81	11.625
50.84	2.657
50.87	14.39
50.9	14.422
50.93	14.453
50.96	12.686
50.99	20.817
51.02	19.05
51.05	13.682
51.08	12.815
51.11	19.148
51.14	16.48
51.17	12.911
51.2	19.244
51.23	9.375
51.26	13.008
51.29	16.64
51.32	10.373
51.35	14.005
51.38	17.637
51.41	21.269
51.44	23.1
51.47	19.534
51.5	13.267
51.53	12.398
51.56	13.329
51.59	10.663
51.62	12.494
51.65	18.827
51.68	13.458
51.71	10.792
51.74	13.523
51.77	19.856
51.8	14.488
51.83	15.421
51.86	14.552
51.89	15.485
51.92	12.816
51.95	13.75
51.98	14.681
52.01	14.714
52.04	6.645
52.07	11.178
52.1	19.31
52.13	13.943
52.16	10.375
52.19	23.006
52.22	23.039
52.25	23.972
52.28	9.603
52.31	15.935
52.34	8.768
52.37	6.1
52.4	11.532
52.43	20.565
52.46	13.397
52.49	17.928
52.52	7.161
52.55	13.493
52.58	18.926
52.61	18.058
52.64	18.091
52.67	20.822
52.7	20.855
52.73	14.587
52.76	20.918
52.79	6.551
52.82	24.584
52.85	7.516
52.88	12.048
52.91	13.88
52.94	11.213
52.97	13.945
53	12.176
53.03	15.809
53.06	20.341
53.09	14.074
53.12	14.105
53.15	12.338
53.18	11.47
53.21	10.602
53.24	16.934
53.27	25.967
53.3	25.998
53.33	16.132
53.36	11.663
53.39	25.196
53.42	15.328
53.45	10.861
53.48	19.892
53.51	20.824
53.54	19.056
53.57	6.489
53.6	20.921
53.63	19.154
53.66	6.585
53.69	19.217
53.72	11.15
53.75	14.781
53.78	21.114
53.81	17.546
53.84	20.279
53.87	14.911
53.9	10.444
53.93	11.375
53.96	19.508
53.99	15.94
54.02	19.572
54.05	15.104
54.08	20.537
54.11	17.868
54.14	33.202
54.17	11.633
54.2	17.066
54.23	17.998
54.26	19.829
54.29	18.062
54.32	19.895
54.35	18.127
54.38	19.959
54.41	31.691
54.44	12.824
54.47	20.055
54.5	29.089
54.53	21.02
54.56	22.851
54.59	17.484
54.62	20.216
54.65	18.449
54.68	20.282
54.71	26.614
54.74	17.645
54.77	20.378
54.8	25.81
54.83	20.442
54.86	11.474
54.89	20.507
54.92	20.538
54.95	27.772
54.98	30.503
55.01	32.334
55.04	30.567
55.07	21.6
55.1	18.932
55.13	31.565
55.16	18.996
55.19	29.828
55.22	30.761
55.25	19.094
55.28	30.826
55.31	40.757
55.34	29.99
55.37	34.522
55.4	30.055
55.43	46.286
55.46	31.019
55.49	44.55
55.52	32.883
55.55	32.915
55.58	36.547
55.61	36.579
55.64	44.712
55.67	62.744
55.7	44.777
55.73	58.308
55.76	63.74
55.79	89.873
55.82	103.406
55.85	123.237
55.88	140.369
55.91	158.402
55.94	172.834
55.97	235.866
56	291.699
56.03	510.431
56.06	847.961
56.09	1814.6
56.12	3126.83
56.15	2490.56
56.18	1230.6
56.21	859.823
56.24	1038.96
56.27	1665.38
56.3	1444.93
56.33	734.852
56.36	332.585
56.39	227.318
56.42	166.149
56.45	150.882
56.48	123.014
56.51	78.046
56.54	69.078
56.57	60.112
56.6	46.643
56.63	53.875
56.66	43.108
56.69	47.639
56.72	50.372
56.75	46.805
56.78	45.036
56.81	33.368
56.84	28.001
56.87	32.532
56.9	27.166
56.93	33.497
56.96	33.53
56.99	34.462
57.02	29.095
57.05	15.626
57.08	33.657
57.11	19.291
57.14	22.923
57.17	27.455
57.2	39.188
57.23	23.919
57.26	24.851
57.29	20.384
57.32	18.617
57.35	20.449
57.38	21.38
57.41	30.413
57.44	24.144
57.47	9.778
57.5	17.011
57.53	14.342
57.56	25.173
57.59	18.906
57.62	19.838
57.65	19.871
57.68	20.803
57.71	15.435
57.74	16.367
57.77	16.4
57.8	20.931
57.83	15.565
57.86	7.496
57.89	14.729
57.92	17.46
57.95	14.793
57.98	17.525
58.01	20.257
58.04	23.889
58.07	24.822
58.1	14.954
58.13	13.185
58.16	13.219
58.19	19.55
58.22	15.983
58.25	30.416
58.28	17.847
58.31	12.479
58.34	16.112
58.37	8.043
58.4	15.276
58.43	10.808
58.46	17.141
58.49	19.873
58.52	21.706
58.55	28.937
58.58	19.969
58.61	20.901
58.64	15.534
58.67	11.966
58.7	16.498
58.73	18.331
58.76	11.162
58.79	21.095
58.82	13.926
58.85	22.959
58.88	17.591
58.91	8.624
58.94	17.655
58.97	8.689
59	24.92
59.03	12.353
59.06	13.284
59.09	14.218
59.12	9.749
59.15	18.78
59.18	20.614
59.21	11.647
59.24	16.178
59.27	21.611
59.3	18.042
59.33	18.974
59.36	12.707
59.39	13.638
59.42	16.371
59.45	17.303
59.48	17.336
59.51	16.468
59.54	19.201
59.57	14.732
59.6	19.265
59.63	16.596
59.66	19.329
59.69	19.361
59.72	21.194
59.75	14.025
59.78	14.059
59.81	21.29
59.84	10.523
59.87	10.555
59.9	16.887
59.93	15.119
59.96	17.852
59.99	16.983
60.02	17.917
60.05	12.548
60.08	18.88
60.11	24.312
60.14	13.544
60.17	15.377
60.2	12.708
60.23	14.542
60.26	15.473
60.29	22.706
60.32	19.139
60.35	12.87
60.38	12.902
60.41	10.235
60.44	5.767
60.47	20.2
60.5	19.331
60.53	14.864
60.56	24.796
60.59	10.428
60.62	17.66
60.65	15.893
60.68	11.424
60.71	15.058
60.74	9.689
60.77	11.522
60.8	18.754
60.83	5.286
60.86	14.318
60.89	20.651
60.92	9.882
60.95	14.414
60.98	11.747
61.01	10.879
61.04	13.612
61.07	14.543
61.1	10.976
61.13	14.608
61.16	19.141
61.19	20.072
61.22	11.105
61.25	14.737
61.28	14.769
61.31	12.101
61.34	14.834
61.37	15.766
61.4	22.997
61.43	6.83
61.46	10.463
61.49	11.394
61.52	11.426
61.55	7.859
61.58	9.69
61.61	24.123
61.64	12.455
61.67	18.788
61.7	14.32
61.73	19.752
61.76	18.884
61.79	19.817
61.82	12.649
61.85	16.281
61.88	17.213
61.91	14.546
61.94	11.877
61.97	16.411
62	19.142
62.03	17.375
62.06	19.207
62.09	11.139
62.12	12.971
62.15	19.303
62.18	15.736
62.21	22.069
62.24	15.8
62.27	13.1
62.3	19.4
62.33	13.1
62.36	20.3
62.39	12.2
62.42	10.4
62.45	8.6
62.48	16.7
62.51	14.9
62.54	16.7
62.57	11.3
62.6	14.9
62.63	14.9
62.66	11.3
62.69	8.6
62.72	15.8
62.75	12.2
62.78	17.6
62.81	21.2
62.84	23.9
62.87	15.8
62.9	16.7
62.93	17.6
62.96	22.1
62.99	14.9
63.02	13.1
63.05	11.3
63.08	14.9
63.11	19.4
63.14	16.7
63.17	22.1
63.2	21.2
63.23	16.7
63.26	11.3
63.29	13.1
63.32	20.3
63.35	8.6
63.38	21.2
63.41	16.7
63.44	17.6
63.47	22.1
63.5	10.4
63.53	16.7
63.56	23.9
63.59	13.1
63.62	21.2
63.65	12.2
63.68	10.4
63.71	17.6
63.74	12.2
63.77	17.6
63.8	14.9
63.83	21.2
63.86	25.7
63.89	14.9
63.92	7.7
63.95	12.2
63.98	13.1
64.01	19.4
64.04	21.2
64.07	13.1
64.1	19.4
64.13	23.9
64.16	20.3
64.19	12.2
64.22	20.3
64.25	19.4
64.28	15.8
64.31	13.1
64.34	12.2
64.37	16.7
64.4	13.1
64.43	13.1
64.46	13.1
64.49	10.4
64.52	15.8
64.55	11.3
64.58	16.7
64.61	14.9
64.64	13.1
64.67	15.8
64.7	12.2
64.73	26.6
64.76	15.8
64.79	13.1
64.82	19.4
64.85	11.3
64.88	14.9
64.91	8.6
64.94	14.9
64.97	14.9
65	19.4
65.03	21.2
65.06	7.7
65.09	11.3
65.12	14.9
65.15	13.1
65.18	13.1
65.21	14.9
65.24	15.8
65.27	17.6
65.3	22.1
65.33	21.2
65.36	5.9
65.39	21.2
65.42	23.9
65.45	16.7
65.48	11.3
65.51	15.8
65.54	16.7
65.57	10.4
65.6	16.7
65.63	13.1
65.66	13.1
65.69	15.8
65.72	12.2
65.75	17.6
65.78	15.8
65.81	16.7
65.84	15.8
65.87	12.2
65.9	24.8
65.93	10.4
65.96	12.2
65.99	12.2
66.02	6.8
66.05	23.9
66.08	13.1
66.11	22.1
66.14	13.1
66.17	11.3
66.2	10.4
66.23	12.2
66.26	12.2
66.29	12.2
66.32	12.2
66.35	22.1
66.38	17.6
66.41	7.7
66.44	21.2
66.47	16.7
66.5	14.9
66.53	8.6
66.56	21.2
66.59	15.8
66.62	3.2
66.65	17.6
66.68	20.3
66.71	7.7
66.74	6.8
66.77	14.9
66.8	13.1
66.83	17.6
66.86	13.1
66.89	14.9
66.92	8.6
66.95	13.1
66.98	16.7
67.01	14.9
67.04	20.3
67.07	14.9
67.1	17.6
67.13	22.1
67.16	19.4
67.19	12.2
67.22	14.9
67.25	20.3
67.28	22.1
67.31	22.1
67.34	14.9
67.37	12.2
67.4	15.8
67.43	14.9
67.46	15.8
67.49	7.7
67.52	16.7
67.55	19.4
67.58	19.4
67.61	23.9
67.64	21.2
67.67	15.8
67.7	24.8
67.73	12.2
67.76	19.4
67.79	17.6
67.82	22.1
67.85	23.9
67.88	20.3
67.91	12.2
67.94	14.9
67.97	19.4
68	29.3
68.03	22.1
68.06	15.8
68.09	12.2
68.12	19.4
68.15	17.6
68.18	26.6
68.21	21.2
68.24	17.6
68.27	15.8
68.3	14.9
68.33	13.1
68.36	32.9
68.39	32.9
68.42	20.3
68.45	17.6
68.48	19.4
68.51	23.9
68.54	12.2
68.57	22.1
68.6	22.1
68.63	28.4
68.66	43.7
68.69	24.8
68.72	32.9
68.75	30.2
68.78	41.9
68.81	50.9
68.84	48.2
68.87	42.8
68.9	60.8
68.93	58.1
68.96	71.6
68.99	120.2
69.02	167.9
69.05	178.7
69.08	330.8
69.11	570.2
69.14	632.3
69.17	434.3
69.2	249.8
69.23	224.6
69.26	205.7
69.29	277.7
69.32	332.6
69.35	339.8
69.38	197.6
69.41	122.9
69.44	94.1
69.47	61.7
69.5	57.2
69.53	47.3
69.56	32.9
69.59	48.2
69.62	32.9
69.65	28.4
69.68	30.2
69.71	15.8
69.74	17.6
69.77	31.1
69.8	20.3
69.83	22.1
69.86	22.1
69.89	26.6
69.92	19.4
69.95	20.3
69.98	21.2
70.01	25.7
70.04	13.1
70.07	23.9
70.1	16.7
70.13	21.2
70.16	24.8
70.19	15.8
70.22	21.2
70.25	25.7
70.28	21.2
70.31	24.8
70.34	16.7
70.37	20.3
70.4	16.7
70.43	7.7
70.46	17.6
70.49	15.8
70.52	15.8
70.55	22.1
70.58	25.7
70.61	25.7
70.64	20.3
70.67	16.7
70.7	13.1
70.73	19.4
70.76	15.8
70.79	17.6
70.82	23.9
70.85	17.6
70.88	17.6
70.91	15.8
70.94	14.9
70.97	14.9
71	20.3
71.03	14.9
71.06	20.3
71.09	25.7
71.12	20.3
71.15	13.1
71.18	14.9
71.21	17.6
71.24	19.4
71.27	19.4
71.3	19.4
71.33	17.6
71.36	14.9
71.39	15.8
71.42	10.4
71.45	15.8
71.48	25.7
71.51	10.4
71.54	14.9
71.57	15.8
71.6	14.9
71.63	14.9
71.66	15.8
71.69	6.8
71.72	15.8
71.75	14.9
71.78	12.2
71.81	15.8
71.84	20.3
71.87	14.9
71.9	25.7
71.93	16.7
71.96	14.9
71.99	8.6
72.02	11.3
72.05	7.7
72.08	16.7
72.11	15.8
72.14	20.3
72.17	11.3
72.2	19.4
72.23	15.8
72.26	16.7
72.29	15.8
72.32	24.8
72.35	13.1
72.38	13.1
72.41	15.8
72.44	16.7
72.47	11.3
72.5	16.7
72.53	16.7
72.56	23.9
72.59	17.6
72.62	17.6
72.65	14.9
72.68	14.9
72.71	12.2
72.74	13.1
72.77	16.7
72.8	16.7
72.83	11.3
72.86	10.4
72.89	8.6
72.92	8.6
72.95	23.9
72.98	14.9
73.01	16.7
73.04	13.1
73.07	16.7
73.1	8.6
73.13	7.7
73.16	16.7
73.19	12.2
73.22	12.2
73.25	22.1
73.28	25.7
73.31	11.3
73.34	26.6
73.37	14.9
73.4	11.3
73.43	16.7
73.46	20.3
73.49	7.7
73.52	10.4
73.55	6.8
73.58	17.6
73.61	21.2
73.64	21.2
73.67	16.7
73.7	21.2
73.73	8.6
73.76	10.4
73.79	11.3
73.82	22.1
73.85	19.4
73.88	19.4
73.91	28.4
73.94	10.4
73.97	16.7
74	12.2
74.03	13.1
74.06	20.3
74.09	17.6
74.12	15.8
74.15	22.1
74.18	25.7
74.21	13.1
74.24	14.9
74.27	16.7
74.3	15.8
74.33	13.1
74.36	14.9
74.39	12.2
74.42	14.9
74.45	20.3
74.48	25.7
74.51	11.3
74.54	19.4
74.57	23.9
74.6	14.9
74.63	14.9
74.66	14.9
74.69	17.6
74.72	21.2
74.75	15.8
74.78	15.8
74.81	21.2
74.84	10.4
74.87	22.1
74.9	13.1
74.93	12.2
74.96	11.3
74.99	16.7
75.02	24.8
75.05	15.8
75.08	15.8
75.11	16.7
75.14	14.9
75.17	16.7
75.2	17.6
75.23	26.6
75.26	20.3
75.29	14.9
75.32	20.3
75.35	16.7
75.38	25.7
75.41	25.7
75.44	15.8
75.47	14.9
75.5	21.2
75.53	30.2
75.56	31.1
75.59	22.1
75.62	20.3
75.65	32.9
75.68	26.6
75.71	20.3
75.74	22.1
75.77	34.7
75.8	19.4
75.83	30.2
75.86	38.3
75.89	38.3
75.92	35.6
75.95	37.4
75.98	40.1
76.01	46.4
76.04	40.1
76.07	61.7
76.1	67.1
76.13	93.2
76.16	96.8
76.19	98.6
76.22	116.6
76.25	166.1
76.28	226.4
76.31	375.8
76.34	689.9
76.37	971.6
76.4	863.603
76.43	480.2
76.46	302.9
76.49	268.7
76.52	280.4
76.55	355.1
76.58	483.8
76.61	553.1
76.64	352.4
76.67	194.9
76.7	134.6
76.73	97.7
76.76	78.8
76.79	55.4
76.82	60.8
76.85	42.8
76.88	35.6
76.91	42.8
76.94	33.8
76.97	32.9
77	30.2
77.03	15.8
77.06	30.2
77.09	23.9
77.12	26.6
77.15	29.3
77.18	17.6
77.21	17.6
77.24	28.4
77.27	13.1
77.3	22.1
77.33	26.6
77.36	24.8
77.39	20.3
77.42	20.3
77.45	30.2
77.48	33.8
77.51	10.4
77.54	26.6
77.57	20.3
77.6	20.3
77.63	20.3
77.66	22.1
77.69	22.1
77.72	25.7
77.75	25.7
77.78	17.6
77.81	20.3
77.84	20.3
77.87	24.8
77.9	12.2
77.93	16.7
77.96	21.2
77.99	19.4
78.02	17.6
78.05	13.1
78.08	21.2
78.11	17.6
78.14	22.1
78.17	22.1
78.2	16.7
78.23	13.1
78.26	16.7
78.29	13.1
78.32	25.7
78.35	12.2
78.38	22.1
78.41	16.7
78.44	14.9
78.47	14.9
78.5	21.2
78.53	26.6
78.56	19.4
78.59	20.3
78.62	23.9
78.65	16.7
78.68	16.7
78.71	12.2
78.74	14.9
78.77	25.7
78.8	15.8
78.83	23.9
78.86	20.3
78.89	19.4
78.92	14.9
78.95	24.8
78.98	16.7
79.01	17.6
79.04	17.6
79.07	14.9
79.1	16.7
79.13	19.4
79.16	11.3
79.19	15.8
79.22	13.1
79.25	11.3
79.28	17.6
79.31	12.2
79.34	12.2
79.37	17.6
79.4	14.9
79.43	14.9
79.46	21.2
79.49	15.8
79.52	24.8
79.55	17.6
79.58	13.1
79.61	12.2
79.64	22.1
79.67	13.1
79.7	17.6
79.73	16.7
79.76	19.4
79.79	14.9
79.82	7.7
79.85	15.8
79.88	17.6
79.91	16.7
79.94	11.3
79.97	19.4
